Temperature (K)	Pressure (Pa)	"Density (v, kg/m3)"	"Volume (v, m3/kg)"	"Internal Energy (v, J/kg)"	"Enthalpy (v, J/kg)"	"Entropy (v, J/kg*K)"	"Cv (v, J/kg*K)"	"Cp (v, J/kg*K)"	"Sound Spd. (v, m/s)"	"Joule-Thomson (v, K/Pa)"	"Therm. Cond. (v, W/m*K)"	"Viscosity (v, Pa*s)"
100	101330	3.6039	0.27747	70107	98222	5754.2	724.67	1035.4	198.29	0.000016779	0.0092943	7.15E-06
101	101330	3.5661	0.28042	70843	99257	5764.5	724.34	1034.4	199.35	0.000016465	0.0093899	7.22E-06
102	101330	3.529	0.28336	71579	100290	5774.7	724.03	1033.4	200.4	0.000016161	0.0094853	7.29E-06
103	101330	3.4928	0.2863	72314	101320	5784.8	723.72	1032.4	201.45	0.000015866	0.0095806	7.36E-06
104	101330	3.4573	0.28924	73048	102360	5794.8	723.43	1031.5	202.49	0.000015581	0.0096759	7.42E-06
105	101330	3.4226	0.29218	73782	103390	5804.6	723.15	1030.6	203.52	0.000015304	0.009771	7.49E-06
106	101330	3.3886	0.29511	74515	104420	5814.4	722.88	1029.8	204.55	0.000015035	0.009866	7.56E-06
107	101330	3.3553	0.29804	75248	105450	5824.1	722.63	1029	205.57	0.000014774	0.0099609	7.63E-06
108	101330	3.3227	0.30096	75980	106470	5833.6	722.38	1028.2	206.58	0.000014521	0.010056	7.69E-06
109	101330	3.2907	0.30389	76712	107500	5843.1	722.14	1027.5	207.59	0.000014275	0.01015	7.76E-06
110	101330	3.2594	0.30681	77443	108530	5852.5	721.92	1026.8	208.59	0.000014035	0.010245	7.83E-06
111	101330	3.2287	0.30973	78173	109560	5861.8	721.7	1026.1	209.59	0.000013803	0.010339	7.90E-06
112	101330	3.1985	0.31264	78904	110580	5871	721.49	1025.4	210.58	0.000013577	0.010434	7.96E-06
113	101330	3.169	0.31556	79633	111610	5880.1	721.29	1024.8	211.57	0.000013357	0.010528	8.03E-06
114	101330	3.14	0.31847	80363	112630	5889.1	721.1	1024.2	212.55	0.000013143	0.010622	0.000008097
115	101330	3.1116	0.32138	81092	113660	5898.1	720.91	1023.6	213.53	0.000012935	0.010716	8.16E-06
116	101330	3.0837	0.32429	81820	114680	5906.9	720.73	1023.1	214.5	0.000012732	0.010809	0.00000823
117	101330	3.0563	0.3272	82549	115700	5915.7	720.56	1022.5	215.46	0.000012535	0.010903	8.30E-06
118	101330	3.0294	0.3301	83276	116720	5924.4	720.4	1022	216.42	0.000012343	0.010997	8.36E-06
119	101330	3.003	0.33301	84004	117750	5933	720.24	1021.5	217.38	0.000012155	0.01109	8.43E-06
120	101330	2.977	0.33591	84731	118770	5941.6	720.09	1021	218.33	0.000011973	0.011183	8.49E-06
121	101330	2.9515	0.33881	85458	119790	5950	719.95	1020.5	219.28	0.000011795	0.011276	8.56E-06
122	101330	2.9265	0.34171	86185	120810	5958.4	719.81	1020.1	220.22	0.000011621	0.011369	8.63E-06
123	101330	2.9019	0.3446	86911	121830	5966.8	719.67	1019.7	221.15	0.000011452	0.011462	8.69E-06
124	101330	2.8777	0.3475	87637	122850	5975	719.54	1019.2	222.09	0.000011287	0.011555	8.76E-06
125	101330	2.8539	0.35039	88363	123870	5983.2	719.42	1018.8	223.01	0.000011125	0.011648	8.82E-06
126	101330	2.8306	0.35329	89088	124890	5991.3	719.3	1018.5	223.94	0.000010968	0.01174	8.89E-06
127	101330	2.8076	0.35618	89813	125900	5999.4	719.19	1018.1	224.86	0.000010814	0.011833	8.95E-06
128	101330	2.785	0.35907	90538	126920	6007.4	719.07	1017.7	225.77	0.000010664	0.011925	9.02E-06
129	101330	2.7627	0.36196	91263	127940	6015.3	718.97	1017.4	226.68	0.000010517	0.012017	9.08E-06
130	101330	2.7409	0.36485	91988	128960	6023.1	718.87	1017	227.59	0.000010374	0.012109	0.000009146
131	101330	2.7193	0.36774	92712	129970	6030.9	718.77	1016.7	228.49	0.000010234	0.012201	9.21E-06
132	101330	2.6982	0.37062	93436	130990	6038.7	718.67	1016.4	229.39	0.000010097	0.012292	9.27E-06
133	101330	2.6773	0.37351	94160	132010	6046.3	718.58	1016.1	230.29	9.96E-06	0.012384	9.34E-06
134	101330	2.6568	0.37639	94884	133020	6053.9	718.49	1015.8	231.18	9.83E-06	0.012475	0.000009403
135	101330	2.6366	0.37927	95607	134040	6061.5	718.41	1015.5	232.07	9.70E-06	0.012567	9.47E-06
136	101330	2.6167	0.38215	96331	135050	6069	718.33	1015.2	232.95	9.58E-06	0.012658	9.53E-06
137	101330	2.5972	0.38504	97054	136070	6076.4	718.25	1014.9	233.83	9.45E-06	0.012749	9.59E-06
138	101330	2.5779	0.38792	97777	137080	6083.8	718.17	1014.7	234.71	9.33E-06	0.01284	9.66E-06
139	101330	2.5589	0.39079	98500	138100	6091.1	718.1	1014.4	235.58	9.22E-06	0.01293	9.72E-06
140	101330	2.5402	0.39367	99222	139110	6098.4	718.03	1014.2	236.45	9.10E-06	0.013021	9.78E-06
141	101330	2.5217	0.39655	99945	140130	6105.6	717.96	1013.9	237.31	8.99E-06	0.013112	9.85E-06
142	101330	2.5036	0.39943	100670	141140	6112.8	717.9	1013.7	238.18	8.88E-06	0.013202	9.91E-06
143	101330	2.4857	0.4023	101390	142150	6119.9	717.83	1013.5	239.04	8.77E-06	0.013292	9.97E-06
144	101330	2.468	0.40518	102110	143170	6126.9	717.77	1013.3	239.89	0.000008663	0.013382	0.000010037
145	101330	2.4507	0.40805	102830	144180	6134	717.71	1013.1	240.74	8.56E-06	0.013472	0.000010099
146	101330	2.4335	0.41093	103560	145190	6140.9	717.65	1012.8	241.59	8.46E-06	0.013562	0.000010162
147	101330	2.4166	0.4138	104280	146200	6147.8	717.6	1012.6	242.44	8.36E-06	0.013652	0.000010224
148	101330	2.4	0.41667	105000	147220	6154.7	717.55	1012.5	243.28	0.000008258	0.013741	0.000010286
149	101330	2.3835	0.41954	105720	148230	6161.5	717.5	1012.3	244.12	8.16E-06	0.013831	0.000010349
150	101330	2.3673	0.42241	106440	149240	6168.3	717.45	1012.1	244.96	8.07E-06	0.01392	0.000010411
151	101330	2.3514	0.42528	107160	150250	6175	717.4	1011.9	245.79	0.000007974	0.014009	0.000010473
152	101330	2.3356	0.42815	107880	151270	6181.7	717.35	1011.7	246.62	7.88E-06	0.014098	0.000010534
153	101330	2.3201	0.43102	108600	152280	6188.3	717.31	1011.6	247.45	7.79E-06	0.014187	0.000010596
154	101330	2.3047	0.43389	109320	153290	6194.9	717.26	1011.4	248.27	7.71E-06	0.014276	0.000010658
155	101330	2.2896	0.43676	110050	154300	6201.5	717.22	1011.2	249.09	7.62E-06	0.014364	0.000010719
156	101330	2.2747	0.43963	110770	155310	6208	717.18	1011.1	249.91	7.53E-06	0.014453	0.00001078
157	101330	2.2599	0.44249	111490	156320	6214.4	717.14	1010.9	250.73	7.45E-06	0.014541	0.000010842
158	101330	2.2454	0.44536	112210	157330	6220.8	717.11	1010.8	251.54	7.37E-06	0.01463	0.000010903
159	101330	2.231	0.44822	112930	158340	6227.2	717.07	1010.6	252.35	7.29E-06	0.014718	0.000010964
160	101330	2.2169	0.45109	113650	159350	6233.5	717.03	1010.5	253.16	7.21E-06	0.014806	0.000011025
161	101330	2.2029	0.45395	114370	160370	6239.8	717	1010.4	253.96	7.13E-06	0.014894	0.000011085
162	101330	2.1891	0.45682	115090	161380	6246.1	716.97	1010.2	254.76	7.06E-06	0.014981	0.000011146
163	101330	2.1754	0.45968	115810	162390	6252.3	716.94	1010.1	255.56	6.98E-06	0.015069	0.000011206
164	101330	2.162	0.46254	116530	163400	6258.5	716.9	1010	256.36	0.000006907	0.015156	0.000011267
165	101330	2.1487	0.46541	117250	164410	6264.6	716.87	1009.9	257.15	6.83E-06	0.015244	0.000011327
166	101330	2.1355	0.46827	117970	165420	6270.7	716.85	1009.7	257.94	0.000006763	0.015331	0.000011387
167	101330	2.1225	0.47113	118690	166430	6276.8	716.82	1009.6	258.73	6.69E-06	0.015418	0.000011447
168	101330	2.1097	0.47399	119410	167430	6282.8	716.79	1009.5	259.52	6.62E-06	0.015505	0.000011507
169	101330	2.0971	0.47685	120130	168440	6288.8	716.77	1009.4	260.3	6.56E-06	0.015592	0.000011567
170	101330	2.0846	0.47971	120850	169450	6294.8	716.74	1009.3	261.08	6.49E-06	0.015678	0.000011627
171	101330	2.0722	0.48257	121570	170460	6300.7	716.72	1009.2	261.86	6.42E-06	0.015765	0.000011686
172	101330	2.06	0.48543	122290	171470	6306.6	716.69	1009.1	262.64	6.36E-06	0.015851	0.000011746
173	101330	2.0479	0.48829	123000	172480	6312.4	716.67	1009	263.41	6.29E-06	0.015938	0.000011805
174	101330	2.036	0.49115	123720	173490	6318.2	716.65	1008.9	264.18	6.23E-06	0.016024	0.000011864
175	101330	2.0242	0.49401	124440	174500	6324	716.63	1008.8	264.95	6.17E-06	0.01611	0.000011924
176	101330	2.0126	0.49687	125160	175510	6329.8	716.61	1008.7	265.72	6.11E-06	0.016196	0.000011983
177	101330	2.0011	0.49973	125880	176520	6335.5	716.59	1008.6	266.48	6.05E-06	0.016282	0.000012041
178	101330	1.9897	0.50259	126600	177520	6341.2	716.57	1008.5	267.24	5.99E-06	0.016367	0.0000121
179	101330	1.9785	0.50544	127320	178530	6346.8	716.55	1008.4	268	5.93E-06	0.016453	0.000012159
180	101330	1.9673	0.5083	128040	179540	6352.4	716.53	1008.4	268.76	5.87E-06	0.016538	0.000012218
181	101330	1.9563	0.51116	128760	180550	6358	716.52	1008.3	269.51	0.000005817	0.016624	0.000012276
182	101330	1.9455	0.51401	129480	181560	6363.6	716.5	1008.2	270.27	5.76E-06	0.016709	0.000012334
183	101330	1.9347	0.51687	130190	182570	6369.1	716.49	1008.1	271.02	5.71E-06	0.016794	0.000012393
184	101330	1.9241	0.51972	130910	183570	6374.6	716.47	1008	271.77	5.65E-06	0.016879	0.000012451
185	101330	1.9136	0.52258	131630	184580	6380.1	716.46	1008	272.51	5.60E-06	0.016964	0.000012509
186	101330	1.9032	0.52543	132350	185590	6385.5	716.44	1007.9	273.26	5.55E-06	0.017049	0.000012567
187	101330	1.8929	0.52829	133070	186600	6390.9	716.43	1007.8	274	5.49E-06	0.017133	0.000012625
188	101330	1.8827	0.53114	133790	187610	6396.3	716.42	1007.8	274.74	0.000005443	0.017218	0.000012683
189	101330	1.8727	0.534	134510	188610	6401.6	716.41	1007.7	275.48	5.39E-06	0.017302	0.00001274
190	101330	1.8627	0.53685	135220	189620	6406.9	716.39	1007.6	276.21	5.34E-06	0.017386	0.000012798
191	101330	1.8529	0.53971	135940	190630	6412.2	716.38	1007.6	276.94	5.29E-06	0.01747	0.000012855
192	101330	1.8431	0.54256	136660	191640	6417.5	716.37	1007.5	277.68	5.25E-06	0.017554	0.000012913
193	101330	1.8335	0.54541	137380	192640	6422.7	716.36	1007.4	278.41	5.20E-06	0.017638	0.00001297
194	101330	1.8239	0.54827	138100	193650	6427.9	716.35	1007.4	279.13	5.15E-06	0.017722	0.000013027
195	101330	1.8145	0.55112	138820	194660	6433.1	716.34	1007.3	279.86	5.10E-06	0.017806	0.000013084
196	101330	1.8051	0.55397	139530	195670	6438.3	716.34	1007.3	280.58	0.000005058	0.017889	0.000013141
197	101330	1.7959	0.55682	140250	196670	6443.4	716.33	1007.2	281.3	5.01E-06	0.017973	0.000013198
198	101330	1.7867	0.55968	140970	197680	6448.5	716.32	1007.2	282.02	0.000004968	0.018056	0.000013254
199	101330	1.7777	0.56253	141690	198690	6453.6	716.31	1007.1	282.74	4.92E-06	0.018139	0.000013311
200	101330	1.7687	0.56538	142410	199690	6458.6	716.31	1007.1	283.46	4.88E-06	0.018222	0.000013368
201	101330	1.7598	0.56823	143130	200700	6463.6	716.3	1007	284.17	4.84E-06	0.018305	0.000013424
202	101330	1.7511	0.57108	143840	201710	6468.6	716.3	1007	284.88	4.79E-06	0.018388	0.00001348
203	101330	1.7424	0.57393	144560	202720	6473.6	716.29	1006.9	285.6	4.75E-06	0.018471	0.000013537
204	101330	1.7338	0.57678	145280	203720	6478.5	716.29	1006.9	286.3	4.71E-06	0.018553	0.000013593
205	101330	1.7252	0.57963	146000	204730	6483.5	716.28	1006.8	287.01	4.67E-06	0.018636	0.000013649
206	101330	1.7168	0.58248	146720	205740	6488.4	716.28	1006.8	287.72	4.63E-06	0.018718	0.000013705
207	101330	1.7084	0.58533	147430	206740	6493.2	716.28	1006.7	288.42	4.59E-06	0.0188	0.00001376
208	101330	1.7001	0.58818	148150	207750	6498.1	716.28	1006.7	289.12	0.000004551	0.018882	0.000013816
209	101330	1.692	0.59103	148870	208760	6502.9	716.27	1006.6	289.82	4.51E-06	0.018964	0.000013872
210	101330	1.6838	0.59388	149590	209760	6507.7	716.27	1006.6	290.52	4.47E-06	0.019046	0.000013927
211	101330	1.6758	0.59673	150310	210770	6512.5	716.27	1006.6	291.21	4.44E-06	0.019128	0.000013983
212	101330	1.6678	0.59958	151020	211780	6517.3	716.27	1006.5	291.91	4.40E-06	0.01921	0.000014038
213	101330	1.6599	0.60243	151740	212780	6522	716.27	1006.5	292.6	4.36E-06	0.019291	0.000014093
214	101330	1.6521	0.60528	152460	213790	6526.7	716.27	1006.5	293.29	4.32E-06	0.019373	0.000014149
215	101330	1.6444	0.60813	153180	214800	6531.4	716.27	1006.4	293.98	4.29E-06	0.019454	0.000014204
216	101330	1.6367	0.61098	153890	215800	6536.1	716.27	1006.4	294.67	4.25E-06	0.019536	0.000014259
217	101330	1.6291	0.61383	154610	216810	6540.7	716.27	1006.4	295.35	4.22E-06	0.019617	0.000014314
218	101330	1.6216	0.61667	155330	217810	6545.4	716.27	1006.3	296.04	4.18E-06	0.019698	0.000014368
219	101330	1.6141	0.61952	156050	218820	6550	716.28	1006.3	296.72	4.15E-06	0.019779	0.000014423
220	101330	1.6068	0.62237	156770	219830	6554.5	716.28	1006.3	297.4	4.11E-06	0.019859	0.000014478
221	101330	1.5994	0.62522	157480	220830	6559.1	716.28	1006.2	298.08	4.08E-06	0.01994	0.000014532
222	101330	1.5922	0.62806	158200	221840	6563.7	716.29	1006.2	298.76	4.05E-06	0.020021	0.000014587
223	101330	1.585	0.63091	158920	222850	6568.2	716.29	1006.2	299.43	4.01E-06	0.020101	0.000014641
224	101330	1.5779	0.63376	159640	223850	6572.7	716.3	1006.2	300.11	3.98E-06	0.020182	0.000014695
225	101330	1.5708	0.63661	160350	224860	6577.2	716.3	1006.1	300.78	3.95E-06	0.020262	0.000014749
226	101330	1.5638	0.63945	161070	225860	6581.6	716.31	1006.1	301.45	3.92E-06	0.020342	0.000014803
227	101330	1.5569	0.6423	161790	226870	6586.1	716.31	1006.1	302.12	3.88E-06	0.020422	0.000014857
228	101330	1.55	0.64515	162510	227880	6590.5	716.32	1006.1	302.79	3.85E-06	0.020502	0.000014911
229	101330	1.5432	0.64799	163220	228880	6594.9	716.32	1006.1	303.46	3.82E-06	0.020582	0.000014965
230	101330	1.5365	0.65084	163940	229890	6599.3	716.33	1006	304.12	0.000003792	0.020662	0.000015019
231	101330	1.5298	0.65369	164660	230890	6603.6	716.34	1006	304.78	3.76E-06	0.020741	0.000015072
232	101330	1.5232	0.65653	165380	231900	6608	716.35	1006	305.45	3.73E-06	0.020821	0.000015126
233	101330	1.5166	0.65938	166100	232910	6612.3	716.36	1006	306.11	3.70E-06	0.0209	0.000015179
234	101330	1.5101	0.66222	166810	233910	6616.6	716.37	1006	306.77	0.000003673	0.02098	0.000015233
235	101330	1.5036	0.66507	167530	234920	6620.9	716.38	1005.9	307.42	3.64E-06	0.021059	0.000015286
236	101330	1.4972	0.66792	168250	235920	6625.2	716.39	1005.9	308.08	3.62E-06	0.021138	0.000015339
237	101330	1.4908	0.67076	168970	236930	6629.4	716.4	1005.9	308.73	0.000003587	0.021217	0.000015392
238	101330	1.4845	0.67361	169680	237940	6633.7	716.41	1005.9	309.39	3.56E-06	0.021296	0.000015445
239	101330	1.4783	0.67645	170400	238940	6637.9	716.42	1005.9	310.04	3.53E-06	0.021375	0.000015498
240	101330	1.4721	0.6793	171120	239950	6642.1	716.43	1005.9	310.69	3.50E-06	0.021454	0.000015551
241	101330	1.466	0.68214	171840	240950	6646.3	716.44	1005.9	311.34	3.48E-06	0.021532	0.000015604
242	101330	1.4599	0.68499	172550	241960	6650.4	716.46	1005.9	311.99	3.45E-06	0.021611	0.000015657
243	101330	1.4538	0.68783	173270	242970	6654.6	716.47	1005.8	312.63	3.42E-06	0.021689	0.000015709
244	101330	1.4479	0.69068	173990	243970	6658.7	716.48	1005.8	313.28	3.40E-06	0.021768	0.000015762
245	101330	1.4419	0.69352	174710	244980	6662.8	716.5	1005.8	313.92	3.37E-06	0.021846	0.000015814
246	101330	1.436	0.69636	175420	245980	6666.9	716.51	1005.8	314.56	3.34E-06	0.021924	0.000015867
247	101330	1.4302	0.69921	176140	246990	6671	716.53	1005.8	315.2	3.32E-06	0.022002	0.000015919
248	101330	1.4244	0.70205	176860	247990	6675.1	716.54	1005.8	315.84	3.29E-06	0.02208	0.000015971
249	101330	1.4186	0.7049	177580	249000	6679.1	716.56	1005.8	316.48	3.27E-06	0.022158	0.000016023
250	101330	1.4129	0.70774	178290	250010	6683.1	716.58	1005.8	317.12	3.24E-06	0.022236	0.000016075
251	101330	1.4073	0.71059	179010	251010	6687.2	716.6	1005.8	317.75	3.22E-06	0.022313	0.000016127
252	101330	1.4017	0.71343	179730	252020	6691.2	716.61	1005.8	318.39	3.19E-06	0.022391	0.000016179
253	101330	1.3961	0.71627	180450	253020	6695.1	716.63	1005.8	319.02	3.17E-06	0.022468	0.000016231
254	101330	1.3906	0.71912	181170	254030	6699.1	716.65	1005.8	319.65	3.15E-06	0.022546	0.000016282
255	101330	1.3851	0.72196	181880	255040	6703.1	716.67	1005.8	320.28	3.12E-06	0.022623	0.000016334
256	101330	1.3797	0.7248	182600	256040	6707	716.69	1005.8	320.91	3.10E-06	0.0227	0.000016386
257	101330	1.3743	0.72765	183320	257050	6710.9	716.71	1005.8	321.53	3.08E-06	0.022777	0.000016437
258	101330	1.3689	0.73049	184040	258050	6714.8	716.73	1005.8	322.16	3.05E-06	0.022854	0.000016489
259	101330	1.3636	0.73333	184750	259060	6718.7	716.75	1005.8	322.79	0.00000303	0.022931	0.00001654
260	101330	1.3584	0.73618	185470	260060	6722.6	716.78	1005.8	323.41	3.01E-06	0.023008	0.000016591
261	101330	1.3531	0.73902	186190	261070	6726.5	716.8	1005.8	324.03	0.000002985	0.023084	0.000016642
262	101330	1.348	0.74186	186910	262080	6730.3	716.82	1005.8	324.65	2.96E-06	0.023161	0.000016693
263	101330	1.3428	0.74471	187620	263080	6734.1	716.85	1005.8	325.27	2.94E-06	0.023238	0.000016744
264	101330	1.3377	0.74755	188340	264090	6737.9	716.87	1005.8	325.89	2.92E-06	0.023314	0.000016795
265	101330	1.3326	0.75039	189060	265090	6741.8	716.9	1005.8	326.51	2.90E-06	0.02339	0.000016846
266	101330	1.3276	0.75323	189780	266100	6745.5	716.92	1005.9	327.12	2.88E-06	0.023467	0.000016897
267	101330	1.3226	0.75608	190500	267110	6749.3	716.95	1005.9	327.74	2.85E-06	0.023543	0.000016947
268	101330	1.3177	0.75892	191210	268110	6753.1	716.97	1005.9	328.35	2.83E-06	0.023619	0.000016998
269	101330	1.3127	0.76176	191930	269120	6756.8	717	1005.9	328.96	2.81E-06	0.023695	0.000017049
270	101330	1.3079	0.7646	192650	270120	6760.6	717.03	1005.9	329.57	2.79E-06	0.023771	0.000017099
271	101330	1.303	0.76745	193370	271130	6764.3	717.06	1005.9	330.18	0.000002772	0.023846	0.000017149
272	101330	1.2982	0.77029	194090	272130	6768	717.09	1005.9	330.79	2.75E-06	0.023922	0.0000172
273	101330	1.2934	0.77313	194800	273140	6771.7	717.11	1005.9	331.4	2.73E-06	0.023998	0.00001725
274	101330	1.2887	0.77597	195520	274150	6775.3	717.15	1006	332.01	2.71E-06	0.024073	0.0000173
275	101330	1.284	0.77881	196240	275150	6779	717.18	1006	332.61	2.69E-06	0.024149	0.00001735
276	101330	1.2793	0.78166	196960	276160	6782.7	717.21	1006	333.21	2.67E-06	0.024224	0.0000174
277	101330	1.2747	0.7845	197680	277160	6786.3	717.24	1006	333.82	2.65E-06	0.024299	0.00001745
278	101330	1.2701	0.78734	198390	278170	6789.9	717.27	1006	334.42	2.63E-06	0.024374	0.0000175
279	101330	1.2655	0.79018	199110	279180	6793.5	717.3	1006	335.02	2.61E-06	0.024449	0.00001755
280	101330	1.261	0.79302	199830	280180	6797.1	717.34	1006.1	335.62	2.60E-06	0.024524	0.0000176
281	101330	1.2565	0.79586	200550	281190	6800.7	717.37	1006.1	336.22	2.58E-06	0.024599	0.000017649
282	101330	1.252	0.79871	201270	282190	6804.3	717.41	1006.1	336.81	2.56E-06	0.024674	0.000017699
283	101330	1.2476	0.80155	201980	283200	6807.9	717.44	1006.1	337.41	2.54E-06	0.024749	0.000017748
284	101330	1.2432	0.80439	202700	284210	6811.4	717.48	1006.2	338	2.52E-06	0.024824	0.000017798
285	101330	1.2388	0.80723	203420	285210	6814.9	717.52	1006.2	338.6	2.50E-06	0.024898	0.000017847
286	101330	1.2345	0.81007	204140	286220	6818.5	717.55	1006.2	339.19	2.49E-06	0.024973	0.000017897
287	101330	1.2301	0.81291	204860	287230	6822	717.59	1006.2	339.78	2.47E-06	0.025047	0.000017946
288	101330	1.2259	0.81575	205580	288230	6825.5	717.63	1006.3	340.37	2.45E-06	0.025121	0.000017995
289	101330	1.2216	0.81859	206290	289240	6829	717.67	1006.3	340.96	2.43E-06	0.025195	0.000018044
290	101330	1.2174	0.82144	207010	290240	6832.4	717.71	1006.3	341.55	2.42E-06	0.02527	0.000018093
291	101330	1.2132	0.82428	207730	291250	6835.9	717.75	1006.3	342.14	2.40E-06	0.025344	0.000018142
292	101330	1.209	0.82712	208450	292260	6839.4	717.79	1006.4	342.72	2.38E-06	0.025418	0.000018191
293	101330	1.2049	0.82996	209170	293260	6842.8	717.83	1006.4	343.31	2.36E-06	0.025492	0.00001824
294	101330	1.2008	0.8328	209890	294270	6846.2	717.88	1006.4	343.89	2.35E-06	0.025565	0.000018288
295	101330	1.1967	0.83564	210610	295280	6849.7	717.92	1006.5	344.47	2.33E-06	0.025639	0.000018337
296	101330	1.1926	0.83848	211320	296280	6853.1	717.96	1006.5	345.06	2.31E-06	0.025713	0.000018386
297	101330	1.1886	0.84132	212040	297290	6856.5	718.01	1006.5	345.64	2.30E-06	0.025786	0.000018434
298	101330	1.1846	0.84416	212760	298300	6859.8	718.05	1006.6	346.22	2.28E-06	0.02586	0.000018483
299	101330	1.1806	0.847	213480	299300	6863.2	718.1	1006.6	346.79	2.27E-06	0.025933	0.000018531
300	101330	1.1767	0.84984	214200	300310	6866.6	718.14	1006.6	347.37	2.25E-06	0.026006	0.000018579
301	101330	1.1728	0.85268	214920	301320	6869.9	718.19	1006.7	347.95	2.23E-06	0.02608	0.000018628
302	101330	1.1689	0.85552	215640	302320	6873.3	718.24	1006.7	348.52	2.22E-06	0.026153	0.000018676
303	101330	1.165	0.85836	216360	303330	6876.6	718.29	1006.7	349.1	0.000002202	0.026226	0.000018724
304	101330	1.1612	0.8612	217070	304340	6879.9	718.34	1006.8	349.67	2.19E-06	0.026299	0.000018772
305	101330	1.1574	0.86404	217790	305340	6883.2	718.39	1006.8	350.24	2.17E-06	0.026372	0.00001882
306	101330	1.1536	0.86688	218510	306350	6886.5	718.44	1006.9	350.81	2.16E-06	0.026445	0.000018868
307	101330	1.1498	0.86972	219230	307360	6889.8	718.49	1006.9	351.38	2.14E-06	0.026517	0.000018916
308	101330	1.146	0.87256	219950	308360	6893.1	718.54	1006.9	351.95	2.13E-06	0.02659	0.000018964
309	101330	1.1423	0.8754	220670	309370	6896.3	718.59	1007	352.52	2.11E-06	0.026663	0.000019011
310	101330	1.1386	0.87824	221390	310380	6899.6	718.65	1007	353.09	2.10E-06	0.026735	0.000019059
311	101330	1.135	0.88108	222110	311380	6902.8	718.7	1007.1	353.66	2.08E-06	0.026808	0.000019107
312	101330	1.1313	0.88392	222830	312390	6906.1	718.76	1007.1	354.22	2.07E-06	0.02688	0.000019154
313	101330	1.1277	0.88676	223550	313400	6909.3	718.81	1007.2	354.79	0.000002052	0.026952	0.000019202
314	101330	1.1241	0.8896	224270	314410	6912.5	718.87	1007.2	355.35	2.04E-06	0.027024	0.000019249
315	101330	1.1205	0.89244	224990	315410	6915.7	718.93	1007.3	355.91	2.02E-06	0.027096	0.000019296
316	101330	1.117	0.89528	225710	316420	6918.9	718.98	1007.3	356.47	2.01E-06	0.027169	0.000019344
317	101330	1.1134	0.89812	226430	317430	6922.1	719.04	1007.4	357.03	2.00E-06	0.027241	0.000019391
318	101330	1.1099	0.90096	227150	318440	6925.2	719.1	1007.4	357.59	1.98E-06	0.027312	0.000019438
319	101330	1.1064	0.9038	227870	319440	6928.4	719.16	1007.5	358.15	1.97E-06	0.027384	0.000019485
320	101330	1.103	0.90664	228580	320450	6931.6	719.22	1007.5	358.71	1.95E-06	0.027456	0.000019532
321	101330	1.0995	0.90948	229300	321460	6934.7	719.28	1007.6	359.26	0.00000194	0.027528	0.000019579
322	101330	1.0961	0.91232	230020	322470	6937.8	719.35	1007.6	359.82	1.93E-06	0.027599	0.000019626
323	101330	1.0927	0.91516	230740	323470	6941	719.41	1007.7	360.37	0.000001913	0.027671	0.000019673
324	101330	1.0893	0.918	231460	324480	6944.1	719.47	1007.7	360.93	1.90E-06	0.027742	0.00001972
325	101330	1.086	0.92083	232180	325490	6947.2	719.54	1007.8	361.48	1.89E-06	0.027814	0.000019767
326	101330	1.0826	0.92367	232900	326500	6950.3	719.6	1007.8	362.03	1.87E-06	0.027885	0.000019813
327	101330	1.0793	0.92651	233630	327500	6953.4	719.67	1007.9	362.58	1.86E-06	0.027956	0.00001986
328	101330	1.076	0.92935	234350	328510	6956.4	719.73	1008	363.13	1.85E-06	0.028027	0.000019906
329	101330	1.0727	0.93219	235070	329520	6959.5	719.8	1008	363.68	1.83E-06	0.028098	0.000019953
330	101330	1.0695	0.93503	235790	330530	6962.6	719.87	1008.1	364.23	1.82E-06	0.028169	0.000019999
331	101330	1.0662	0.93787	236510	331540	6965.6	719.94	1008.1	364.78	1.81E-06	0.02824	0.000020046
332	101330	1.063	0.94071	237230	332540	6968.7	720.01	1008.2	365.32	1.80E-06	0.028311	0.000020092
333	101330	1.0598	0.94355	237950	333550	6971.7	720.08	1008.3	365.87	1.78E-06	0.028382	0.000020138
334	101330	1.0567	0.94639	238670	334560	6974.7	720.15	1008.3	366.41	1.77E-06	0.028453	0.000020184
335	101330	1.0535	0.94922	239390	335570	6977.7	720.22	1008.4	366.96	1.76E-06	0.028523	0.000020231
336	101330	1.0503	0.95206	240110	336580	6980.7	720.29	1008.5	367.5	1.75E-06	0.028594	0.000020277
337	101330	1.0472	0.9549	240830	337590	6983.7	720.37	1008.5	368.04	1.73E-06	0.028664	0.000020323
338	101330	1.0441	0.95774	241550	338590	6986.7	720.44	1008.6	368.58	1.72E-06	0.028735	0.000020369
339	101330	1.041	0.96058	242270	339600	6989.7	720.52	1008.7	369.12	1.71E-06	0.028805	0.000020414
340	101330	1.038	0.96342	242990	340610	6992.7	720.59	1008.7	369.66	1.70E-06	0.028875	0.00002046
341	101330	1.0349	0.96626	243710	341620	6995.6	720.67	1008.8	370.2	1.69E-06	0.028946	0.000020506
342	101330	1.0319	0.9691	244440	342630	6998.6	720.75	1008.9	370.74	1.67E-06	0.029016	0.000020552
343	101330	1.0289	0.97193	245160	343640	7001.5	720.82	1008.9	371.27	1.66E-06	0.029086	0.000020597
344	101330	1.0259	0.97477	245880	344650	7004.5	720.9	1009	371.81	1.65E-06	0.029156	0.000020643
345	101330	1.0229	0.97761	246600	345660	7007.4	720.98	1009.1	372.34	1.64E-06	0.029226	0.000020689
346	101330	1.0199	0.98045	247320	346670	7010.3	721.06	1009.2	372.88	1.63E-06	0.029296	0.000020734
347	101330	1.017	0.98329	248040	347670	7013.2	721.14	1009.2	373.41	1.62E-06	0.029365	0.00002078
348	101330	1.0141	0.98613	248760	348680	7016.1	721.23	1009.3	373.94	1.61E-06	0.029435	0.000020825
349	101330	1.0112	0.98896	249490	349690	7019	721.31	1009.4	374.48	1.59E-06	0.029505	0.00002087
350	101330	1.0083	0.9918	250210	350700	7021.9	721.39	1009.5	375.01	1.58E-06	0.029574	0.000020915
351	101330	1.0054	0.99464	250930	351710	7024.8	721.48	1009.5	375.54	1.57E-06	0.029644	0.000020961
352	101330	1.0025	0.99748	251650	352720	7027.7	721.56	1009.6	376.06	1.56E-06	0.029713	0.000021006
353	101330	0.99968	1.0003	252370	353730	7030.5	721.65	1009.7	376.59	1.55E-06	0.029783	0.000021051
354	101330	0.99685	1.0032	253100	354740	7033.4	721.73	1009.8	377.12	1.54E-06	0.029852	0.000021096
355	101330	0.99404	1.006	253820	355750	7036.2	721.82	1009.9	377.65	1.53E-06	0.029921	0.000021141
356	101330	0.99125	1.0088	254540	356760	7039.1	721.91	1009.9	378.17	1.52E-06	0.02999	0.000021186
357	101330	0.98846	1.0117	255260	357770	7041.9	722	1010	378.7	1.51E-06	0.03006	0.000021231
358	101330	0.9857	1.0145	255990	358780	7044.7	722.09	1010.1	379.22	1.50E-06	0.030129	0.000021276
359	101330	0.98295	1.0173	256710	359790	7047.6	722.18	1010.2	379.74	1.49E-06	0.030198	0.00002132
360	101330	0.98022	1.0202	257430	360800	7050.4	722.27	1010.3	380.26	1.48E-06	0.030267	0.000021365
361	101330	0.9775	1.023	258150	361810	7053.2	722.36	1010.4	380.79	0.000001466	0.030335	0.00002141
362	101330	0.97479	1.0259	258880	362820	7056	722.46	1010.4	381.31	1.46E-06	0.030404	0.000021454
363	101330	0.9721	1.0287	259600	363830	7058.8	722.55	1010.5	381.83	1.45E-06	0.030473	0.000021499
364	101330	0.96943	1.0315	260320	364840	7061.5	722.64	1010.6	382.34	1.44E-06	0.030542	0.000021543
365	101330	0.96677	1.0344	261050	365850	7064.3	722.74	1010.7	382.86	1.43E-06	0.03061	0.000021588
366	101330	0.96412	1.0372	261770	366860	7067.1	722.84	1010.8	383.38	1.42E-06	0.030679	0.000021632
367	101330	0.96149	1.04	262490	367880	7069.8	722.93	1010.9	383.9	1.41E-06	0.030747	0.000021676
368	101330	0.95888	1.0429	263220	368890	7072.6	723.03	1011	384.41	1.40E-06	0.030816	0.000021721
369	101330	0.95627	1.0457	263940	369900	7075.3	723.13	1011.1	384.93	1.39E-06	0.030884	0.000021765
370	101330	0.95369	1.0486	264660	370910	7078.1	723.23	1011.2	385.44	1.38E-06	0.030952	0.000021809
371	101330	0.95111	1.0514	265390	371920	7080.8	723.33	1011.3	385.95	1.37E-06	0.03102	0.000021853
372	101330	0.94855	1.0542	266110	372930	7083.5	723.43	1011.4	386.47	1.36E-06	0.031088	0.000021897
373	101330	0.94601	1.0571	266830	373940	7086.2	723.53	1011.5	386.98	1.35E-06	0.031157	0.000021941
374	101330	0.94347	1.0599	267560	374950	7088.9	723.63	1011.6	387.49	1.34E-06	0.031225	0.000021985
375	101330	0.94095	1.0628	268280	375970	7091.6	723.74	1011.7	388	1.33E-06	0.031293	0.000022029
376	101330	0.93845	1.0656	269010	376980	7094.3	723.84	1011.8	388.51	1.32E-06	0.03136	0.000022073
377	101330	0.93596	1.0684	269730	377990	7097	723.95	1011.9	389.02	1.31E-06	0.031428	0.000022117
378	101330	0.93348	1.0713	270460	379000	7099.7	724.05	1012	389.52	1.30E-06	0.031496	0.000022161
379	101330	0.93101	1.0741	271180	380010	7102.4	724.16	1012.1	390.03	1.29E-06	0.031564	0.000022204
380	101330	0.92856	1.0769	271900	381030	7105	724.27	1012.2	390.54	1.28E-06	0.031631	0.000022248
381	101330	0.92612	1.0798	272630	382040	7107.7	724.37	1012.3	391.04	1.27E-06	0.031699	0.000022292
382	101330	0.92369	1.0826	273350	383050	7110.4	724.48	1012.4	391.55	1.26E-06	0.031766	0.000022335
383	101330	0.92128	1.0855	274080	384060	7113	724.59	1012.5	392.05	1.25E-06	0.031834	0.000022379
384	101330	0.91887	1.0883	274800	385070	7115.6	724.7	1012.6	392.56	1.25E-06	0.031901	0.000022422
385	101330	0.91648	1.0911	275530	386090	7118.3	724.81	1012.7	393.06	1.24E-06	0.031969	0.000022465
386	101330	0.91411	1.094	276250	387100	7120.9	724.93	1012.8	393.56	1.23E-06	0.032036	0.000022509
387	101330	0.91174	1.0968	276980	388110	7123.5	725.04	1012.9	394.06	1.22E-06	0.032103	0.000022552
388	101330	0.90939	1.0996	277700	389130	7126.1	725.15	1013	394.56	1.21E-06	0.03217	0.000022595
389	101330	0.90705	1.1025	278430	390140	7128.8	725.27	1013.1	395.06	1.20E-06	0.032237	0.000022639
390	101330	0.90472	1.1053	279160	391150	7131.4	725.38	1013.2	395.56	1.19E-06	0.032304	0.000022682
391	101330	0.90241	1.1081	279880	392170	7133.9	725.5	1013.3	396.06	1.18E-06	0.032371	0.000022725
392	101330	0.9001	1.111	280610	393180	7136.5	725.62	1013.5	396.55	1.18E-06	0.032438	0.000022768
393	101330	0.89781	1.1138	281330	394190	7139.1	725.73	1013.6	397.05	1.17E-06	0.032505	0.000022811
394	101330	0.89553	1.1167	282060	395210	7141.7	725.85	1013.7	397.55	1.16E-06	0.032572	0.000022854
395	101330	0.89326	1.1195	282790	396220	7144.3	725.97	1013.8	398.04	1.15E-06	0.032639	0.000022897
396	101330	0.891	1.1223	283510	397230	7146.8	726.09	1013.9	398.54	0.000001142	0.032705	0.00002294
397	101330	0.88875	1.1252	284240	398250	7149.4	726.21	1014	399.03	1.13E-06	0.032772	0.000022982
398	101330	0.88652	1.128	284970	399260	7151.9	726.33	1014.1	399.52	1.13E-06	0.032839	0.000023025
399	101330	0.88429	1.1308	285690	400280	7154.5	726.46	1014.3	400.02	1.12E-06	0.032905	0.000023068
400	101330	0.88208	1.1337	286420	401290	7157	726.58	1014.4	400.51	1.11E-06	0.032972	0.000023111
401	101330	0.87988	1.1365	287150	402300	7159.6	726.7	1014.5	401	1.10E-06	0.033038	0.000023153
402	101330	0.87769	1.1394	287870	403320	7162.1	726.83	1014.6	401.49	1.09E-06	0.033104	0.000023196
403	101330	0.87551	1.1422	288600	404330	7164.6	726.95	1014.7	401.98	1.09E-06	0.033171	0.000023238
404	101330	0.87334	1.145	289330	405350	7167.1	727.08	1014.9	402.47	1.08E-06	0.033237	0.000023281
405	101330	0.87118	1.1479	290060	406360	7169.6	727.21	1015	402.95	1.07E-06	0.033303	0.000023323
406	101330	0.86903	1.1507	290780	407380	7172.1	727.33	1015.1	403.44	1.06E-06	0.033369	0.000023366
407	101330	0.8669	1.1535	291510	408390	7174.6	727.46	1015.2	403.93	1.05E-06	0.033435	0.000023408
408	101330	0.86477	1.1564	292240	409410	7177.1	727.59	1015.4	404.41	1.05E-06	0.033501	0.00002345
409	101330	0.86265	1.1592	292970	410420	7179.6	727.72	1015.5	404.9	1.04E-06	0.033567	0.000023492
410	101330	0.86055	1.1621	293700	411440	7182.1	727.85	1015.6	405.38	1.03E-06	0.033633	0.000023535
411	101330	0.85845	1.1649	294420	412460	7184.6	727.99	1015.8	405.87	1.02E-06	0.033699	0.000023577
412	101330	0.85637	1.1677	295150	413470	7187	728.12	1015.9	406.35	1.02E-06	0.033764	0.000023619
413	101330	0.85429	1.1706	295880	414490	7189.5	728.25	1016	406.83	1.01E-06	0.03383	0.000023661
414	101330	0.85222	1.1734	296610	415500	7191.9	728.39	1016.1	407.31	1.00E-06	0.033896	0.000023703
415	101330	0.85017	1.1762	297340	416520	7194.4	728.52	1016.3	407.8	9.93E-07	0.033961	0.000023745
416	101330	0.84812	1.1791	298070	417540	7196.8	728.66	1016.4	408.28	9.85E-07	0.034027	0.000023787
417	101330	0.84609	1.1819	298800	418550	7199.3	728.79	1016.5	408.76	9.78E-07	0.034092	0.000023829
418	101330	0.84406	1.1847	299520	419570	7201.7	728.93	1016.7	409.23	9.71E-07	0.034158	0.000023871
419	101330	0.84205	1.1876	300250	420590	7204.1	729.07	1016.8	409.71	9.63E-07	0.034223	0.000023912
420	101330	0.84004	1.1904	300980	421600	7206.6	729.21	1016.9	410.19	9.56E-07	0.034289	0.000023954
421	101330	0.83804	1.1933	301710	422620	7209	729.35	1017.1	410.67	9.49E-07	0.034354	0.000023996
422	101330	0.83606	1.1961	302440	423640	7211.4	729.49	1017.2	411.14	9.42E-07	0.034419	0.000024037
423	101330	0.83408	1.1989	303170	424650	7213.8	729.63	1017.3	411.62	9.35E-07	0.034484	0.000024079
424	101330	0.83211	1.2018	303900	425670	7216.2	729.77	1017.5	412.09	9.27E-07	0.034549	0.000024121
425	101330	0.83015	1.2046	304630	426690	7218.6	729.91	1017.6	412.57	9.20E-07	0.034614	0.000024162
426	101330	0.8282	1.2074	305360	427710	7221	730.06	1017.8	413.04	9.13E-07	0.034679	0.000024204
427	101330	0.82626	1.2103	306090	428720	7223.4	730.2	1017.9	413.52	9.06E-07	0.034744	0.000024245
428	101330	0.82433	1.2131	306820	429740	7225.8	730.34	1018	413.99	9.00E-07	0.034809	0.000024286
429	101330	0.8224	1.2159	307550	430760	7228.1	730.49	1018.2	414.46	8.93E-07	0.034874	0.000024328
430	101330	0.82049	1.2188	308290	431780	7230.5	730.64	1018.3	414.93	8.86E-07	0.034939	0.000024369
431	101330	0.81858	1.2216	309020	432800	7232.9	730.78	1018.5	415.4	8.79E-07	0.035004	0.00002441
432	101330	0.81669	1.2245	309750	433820	7235.2	730.93	1018.6	415.87	8.72E-07	0.035068	0.000024452
433	101330	0.8148	1.2273	310480	434830	7237.6	731.08	1018.8	416.34	8.65E-07	0.035133	0.000024493
434	101330	0.81292	1.2301	311210	435850	7239.9	731.23	1018.9	416.81	8.59E-07	0.035197	0.000024534
435	101330	0.81105	1.233	311940	436870	7242.3	731.38	1019.1	417.28	8.52E-07	0.035262	0.000024575
436	101330	0.80919	1.2358	312670	437890	7244.6	731.53	1019.2	417.74	8.45E-07	0.035326	0.000024616
437	101330	0.80734	1.2386	313410	438910	7247	731.68	1019.4	418.21	8.39E-07	0.035391	0.000024657
438	101330	0.80549	1.2415	314140	439930	7249.3	731.83	1019.5	418.68	8.32E-07	0.035455	0.000024698
439	101330	0.80366	1.2443	314870	440950	7251.6	731.99	1019.7	419.14	8.26E-07	0.03552	0.000024739
440	101330	0.80183	1.2471	315600	441970	7253.9	732.14	1019.8	419.61	8.19E-07	0.035584	0.00002478
441	101330	0.80001	1.25	316330	442990	7256.3	732.29	1020	420.07	8.13E-07	0.035648	0.000024821
442	101330	0.7982	1.2528	317070	444010	7258.6	732.45	1020.1	420.53	8.06E-07	0.035712	0.000024861
443	101330	0.79639	1.2557	317800	445030	7260.9	732.61	1020.3	421	8.00E-07	0.035776	0.000024902
444	101330	0.7946	1.2585	318530	446050	7263.2	732.76	1020.4	421.46	7.94E-07	0.03584	0.000024943
445	101330	0.79281	1.2613	319270	447070	7265.5	732.92	1020.6	421.92	7.87E-07	0.035904	0.000024983
446	101330	0.79103	1.2642	320000	448090	7267.8	733.08	1020.7	422.38	7.81E-07	0.035968	0.000025024
447	101330	0.78926	1.267	320730	449110	7270	733.24	1020.9	422.84	7.75E-07	0.036032	0.000025065
448	101330	0.7875	1.2698	321470	450130	7272.3	733.4	1021	423.3	7.69E-07	0.036096	0.000025105
449	101330	0.78575	1.2727	322200	451150	7274.6	733.56	1021.2	423.76	7.62E-07	0.03616	0.000025146
450	101330	0.784	1.2755	322930	452180	7276.9	733.72	1021.4	424.22	7.56E-07	0.036224	0.000025186
451	101330	0.78226	1.2783	323670	453200	7279.1	733.88	1021.5	424.68	7.50E-07	0.036288	0.000025227
452	101330	0.78053	1.2812	324400	454220	7281.4	734.04	1021.7	425.13	7.44E-07	0.036351	0.000025267
453	101330	0.7788	1.284	325140	455240	7283.7	734.2	1021.8	425.59	7.38E-07	0.036415	0.000025307
454	101330	0.77709	1.2869	325870	456260	7285.9	734.37	1022	426.05	7.32E-07	0.036478	0.000025348
455	101330	0.77538	1.2897	326610	457280	7288.2	734.53	1022.2	426.5	7.26E-07	0.036542	0.000025388
456	101330	0.77368	1.2925	327340	458310	7290.4	734.7	1022.3	426.96	7.20E-07	0.036605	0.000025428
457	101330	0.77198	1.2954	328080	459330	7292.7	734.86	1022.5	427.41	7.14E-07	0.036669	0.000025468
458	101330	0.7703	1.2982	328810	460350	7294.9	735.03	1022.6	427.87	7.08E-07	0.036732	0.000025508
459	101330	0.76862	1.301	329550	461370	7297.1	735.19	1022.8	428.32	7.02E-07	0.036795	0.000025548
460	101330	0.76695	1.3039	330280	462400	7299.3	735.36	1023	428.77	6.96E-07	0.036859	0.000025588
461	101330	0.76528	1.3067	331020	463420	7301.6	735.53	1023.1	429.22	6.91E-07	0.036922	0.000025628
462	101330	0.76362	1.3095	331750	464440	7303.8	735.7	1023.3	429.68	6.85E-07	0.036985	0.000025668
463	101330	0.76197	1.3124	332490	465470	7306	735.87	1023.5	430.13	6.79E-07	0.037048	0.000025708
464	101330	0.76033	1.3152	333230	466490	7308.2	736.04	1023.6	430.58	6.73E-07	0.037111	0.000025748
465	101330	0.75869	1.3181	333960	467510	7310.4	736.21	1023.8	431.03	6.68E-07	0.037174	0.000025788
466	101330	0.75707	1.3209	334700	468540	7312.6	736.38	1024	431.47	6.62E-07	0.037237	0.000025828
467	101330	0.75544	1.3237	335440	469560	7314.8	736.55	1024.1	431.92	6.56E-07	0.0373	0.000025868
468	101330	0.75383	1.3266	336170	470590	7317	736.73	1024.3	432.37	6.51E-07	0.037363	0.000025907
469	101330	0.75222	1.3294	336910	471610	7319.2	736.9	1024.5	432.82	6.45E-07	0.037426	0.000025947
470	101330	0.75062	1.3322	337650	472640	7321.4	737.07	1024.7	433.27	6.40E-07	0.037489	0.000025987
471	101330	0.74902	1.3351	338380	473660	7323.5	737.25	1024.8	433.71	6.34E-07	0.037552	0.000026026
472	101330	0.74744	1.3379	339120	474680	7325.7	737.42	1025	434.16	6.29E-07	0.037614	0.000026066
473	101330	0.74586	1.3407	339860	475710	7327.9	737.6	1025.2	434.6	6.23E-07	0.037677	0.000026106
474	101330	0.74428	1.3436	340600	476740	7330.1	737.78	1025.4	435.05	6.18E-07	0.03774	0.000026145
475	101330	0.74271	1.3464	341340	477760	7332.2	737.96	1025.5	435.49	6.12E-07	0.037802	0.000026185
476	101330	0.74115	1.3492	342070	478790	7334.4	738.13	1025.7	435.93	6.07E-07	0.037865	0.000026224
477	101330	0.7396	1.3521	342810	479810	7336.5	738.31	1025.9	436.38	6.02E-07	0.037927	0.000026263
478	101330	0.73805	1.3549	343550	480840	7338.7	738.49	1026.1	436.82	5.96E-07	0.03799	0.000026303
479	101330	0.73651	1.3578	344290	481860	7340.8	738.67	1026.2	437.26	5.91E-07	0.038052	0.000026342
480	101330	0.73497	1.3606	345030	482890	7343	738.85	1026.4	437.7	5.86E-07	0.038114	0.000026381
481	101330	0.73345	1.3634	345770	483920	7345.1	739.03	1026.6	438.14	5.81E-07	0.038177	0.000026421
482	101330	0.73192	1.3663	346510	484940	7347.2	739.21	1026.8	438.58	5.75E-07	0.038239	0.00002646
483	101330	0.73041	1.3691	347250	485970	7349.4	739.4	1027	439.02	5.70E-07	0.038301	0.000026499
484	101330	0.7289	1.3719	347990	487000	7351.5	739.58	1027.1	439.46	5.65E-07	0.038363	0.000026538
485	101330	0.72739	1.3748	348730	488020	7353.6	739.76	1027.3	439.9	5.60E-07	0.038425	0.000026577
486	101330	0.7259	1.3776	349470	489050	7355.7	739.95	1027.5	440.34	5.55E-07	0.038488	0.000026616
487	101330	0.72441	1.3804	350210	490080	7357.8	740.13	1027.7	440.77	5.50E-07	0.03855	0.000026655
488	101330	0.72292	1.3833	350950	491110	7359.9	740.32	1027.9	441.21	5.45E-07	0.038612	0.000026694
489	101330	0.72144	1.3861	351690	492140	7362	740.5	1028	441.65	5.39E-07	0.038674	0.000026733
490	101330	0.71997	1.3889	352430	493160	7364.1	740.69	1028.2	442.08	5.34E-07	0.038735	0.000026772
491	101330	0.7185	1.3918	353170	494190	7366.2	740.88	1028.4	442.52	5.29E-07	0.038797	0.000026811
492	101330	0.71704	1.3946	353910	495220	7368.3	741.07	1028.6	442.95	5.25E-07	0.038859	0.00002685
493	101330	0.71559	1.3975	354650	496250	7370.4	741.25	1028.8	443.39	5.20E-07	0.038921	0.000026889
494	101330	0.71414	1.4003	355390	497280	7372.5	741.44	1029	443.82	5.15E-07	0.038983	0.000026927
495	101330	0.71269	1.4031	356140	498310	7374.6	741.63	1029.2	444.25	5.10E-07	0.039044	0.000026966
496	101330	0.71126	1.406	356880	499340	7376.7	741.82	1029.4	444.69	5.05E-07	0.039106	0.000027005
497	101330	0.70982	1.4088	357620	500370	7378.7	742.01	1029.5	445.12	5.00E-07	0.039167	0.000027043
498	101330	0.7084	1.4116	358360	501400	7380.8	742.2	1029.7	445.55	4.95E-07	0.039229	0.000027082
499	101330	0.70698	1.4145	359100	502430	7382.9	742.4	1029.9	445.98	4.90E-07	0.039291	0.000027121
500	101330	0.70556	1.4173	359850	503460	7384.9	742.59	1030.1	446.41	4.86E-07	0.039352	0.000027159
501	101330	0.70415	1.4201	360590	504490	7387	742.78	1030.3	446.84	4.81E-07	0.039413	0.000027198
502	101330	0.70275	1.423	361330	505520	7389	742.98	1030.5	447.27	4.76E-07	0.039475	0.000027236
503	101330	0.70135	1.4258	362080	506550	7391.1	743.17	1030.7	447.7	4.71E-07	0.039536	0.000027275
504	101330	0.69996	1.4286	362820	507580	7393.1	743.36	1030.9	448.13	4.67E-07	0.039597	0.000027313
505	101330	0.69858	1.4315	363560	508610	7395.2	743.56	1031.1	448.55	4.62E-07	0.039659	0.000027351
506	101330	0.69719	1.4343	364310	509640	7397.2	743.75	1031.3	448.98	4.58E-07	0.03972	0.00002739
507	101330	0.69582	1.4372	365050	510670	7399.3	743.95	1031.5	449.41	4.53E-07	0.039781	0.000027428
508	101330	0.69445	1.44	365800	511700	7401.3	744.15	1031.7	449.84	4.48E-07	0.039842	0.000027466
509	101330	0.69308	1.4428	366540	512730	7403.3	744.34	1031.8	450.26	4.44E-07	0.039903	0.000027505
510	101330	0.69172	1.4457	367280	513770	7405.3	744.54	1032	450.69	4.39E-07	0.039964	0.000027543
511	101330	0.69037	1.4485	368030	514800	7407.4	744.74	1032.2	451.11	4.35E-07	0.040025	0.000027581
512	101330	0.68902	1.4513	368770	515830	7409.4	744.94	1032.4	451.54	4.30E-07	0.040086	0.000027619
513	101330	0.68768	1.4542	369520	516860	7411.4	745.14	1032.6	451.96	4.26E-07	0.040147	0.000027657
514	101330	0.68634	1.457	370260	517900	7413.4	745.34	1032.8	452.38	4.21E-07	0.040208	0.000027695
515	101330	0.68501	1.4598	371010	518930	7415.4	745.54	1033	452.81	4.17E-07	0.040269	0.000027733
516	101330	0.68368	1.4627	371760	519960	7417.4	745.74	1033.2	453.23	4.12E-07	0.04033	0.000027771
517	101330	0.68236	1.4655	372500	521000	7419.4	745.94	1033.4	453.65	4.08E-07	0.04039	0.000027809
518	101330	0.68104	1.4683	373250	522030	7421.4	746.14	1033.6	454.07	4.04E-07	0.040451	0.000027847
519	101330	0.67973	1.4712	373990	523060	7423.4	746.34	1033.8	454.49	3.99E-07	0.040512	0.000027885
520	101330	0.67842	1.474	374740	524100	7425.4	746.55	1034	454.91	3.95E-07	0.040572	0.000027923
521	101330	0.67712	1.4769	375490	525130	7427.4	746.75	1034.2	455.33	3.91E-07	0.040633	0.000027961
522	101330	0.67582	1.4797	376240	526160	7429.4	746.95	1034.4	455.75	3.86E-07	0.040694	0.000027999
523	101330	0.67453	1.4825	376980	527200	7431.4	747.16	1034.6	456.17	3.82E-07	0.040754	0.000028036
524	101330	0.67324	1.4854	377730	528230	7433.3	747.36	1034.8	456.59	3.78E-07	0.040815	0.000028074
525	101330	0.67196	1.4882	378480	529270	7435.3	747.57	1035	457.01	3.74E-07	0.040875	0.000028112
526	101330	0.67068	1.491	379230	530300	7437.3	747.77	1035.2	457.42	3.69E-07	0.040935	0.000028149
527	101330	0.6694	1.4939	379970	531340	7439.2	747.98	1035.5	457.84	3.65E-07	0.040996	0.000028187
528	101330	0.66814	1.4967	380720	532380	7441.2	748.19	1035.7	458.26	3.61E-07	0.041056	0.000028225
529	101330	0.66687	1.4995	381470	533410	7443.2	748.39	1035.9	458.67	3.57E-07	0.041116	0.000028262
530	101330	0.66561	1.5024	382220	534450	7445.1	748.6	1036.1	459.09	3.53E-07	0.041177	0.0000283
531	101330	0.66436	1.5052	382970	535480	7447.1	748.81	1036.3	459.5	3.49E-07	0.041237	0.000028337
532	101330	0.66311	1.508	383720	536520	7449	749.02	1036.5	459.92	3.44E-07	0.041297	0.000028375
533	101330	0.66187	1.5109	384470	537560	7451	749.23	1036.7	460.33	3.40E-07	0.041357	0.000028412
534	101330	0.66063	1.5137	385220	538590	7452.9	749.44	1036.9	460.75	3.36E-07	0.041417	0.000028449
535	101330	0.65939	1.5165	385970	539630	7454.9	749.65	1037.1	461.16	3.32E-07	0.041477	0.000028487
536	101330	0.65816	1.5194	386720	540670	7456.8	749.86	1037.3	461.57	3.28E-07	0.041537	0.000028524
537	101330	0.65694	1.5222	387470	541700	7458.7	750.07	1037.5	461.98	3.24E-07	0.041597	0.000028562
538	101330	0.65571	1.5251	388220	542740	7460.7	750.28	1037.7	462.4	3.20E-07	0.041657	0.000028599
539	101330	0.6545	1.5279	388970	543780	7462.6	750.49	1037.9	462.81	3.16E-07	0.041717	0.000028636
540	101330	0.65329	1.5307	389720	544820	7464.5	750.7	1038.2	463.22	3.12E-07	0.041777	0.000028673
541	101330	0.65208	1.5336	390470	545860	7466.4	750.91	1038.4	463.63	3.08E-07	0.041837	0.00002871
542	101330	0.65087	1.5364	391220	546890	7468.3	751.13	1038.6	464.04	3.04E-07	0.041896	0.000028748
543	101330	0.64968	1.5392	391970	547930	7470.3	751.34	1038.8	464.45	3.01E-07	0.041956	0.000028785
544	101330	0.64848	1.5421	392720	548970	7472.2	751.55	1039	464.86	2.97E-07	0.042016	0.000028822
545	101330	0.64729	1.5449	393470	550010	7474.1	751.77	1039.2	465.27	2.93E-07	0.042075	0.000028859
546	101330	0.64611	1.5477	394230	551050	7476	751.98	1039.4	465.67	2.89E-07	0.042135	0.000028896
547	101330	0.64492	1.5506	394980	552090	7477.9	752.2	1039.6	466.08	2.85E-07	0.042195	0.000028933
548	101330	0.64375	1.5534	395730	553130	7479.8	752.41	1039.9	466.49	2.81E-07	0.042254	0.00002897
549	101330	0.64257	1.5562	396480	554170	7481.7	752.63	1040.1	466.9	2.78E-07	0.042314	0.000029007
550	101330	0.64141	1.5591	397240	555210	7483.6	752.84	1040.3	467.3	2.74E-07	0.042373	0.000029044
551	101330	0.64024	1.5619	397990	556250	7485.5	753.06	1040.5	467.71	2.70E-07	0.042433	0.00002908
552	101330	0.63908	1.5647	398740	557290	7487.4	753.28	1040.7	468.11	2.66E-07	0.042492	0.000029117
553	101330	0.63793	1.5676	399500	558330	7489.2	753.49	1040.9	468.52	2.63E-07	0.042551	0.000029154
554	101330	0.63677	1.5704	400250	559370	7491.1	753.71	1041.1	468.92	2.59E-07	0.042611	0.000029191
555	101330	0.63563	1.5733	401000	560410	7493	753.93	1041.4	469.33	2.55E-07	0.04267	0.000029228
556	101330	0.63448	1.5761	401760	561460	7494.9	754.15	1041.6	469.73	2.51E-07	0.042729	0.000029264
557	101330	0.63334	1.5789	402510	562500	7496.7	754.37	1041.8	470.13	2.48E-07	0.042788	0.000029301
558	101330	0.63221	1.5818	403270	563540	7498.6	754.59	1042	470.54	2.44E-07	0.042848	0.000029338
559	101330	0.63108	1.5846	404020	564580	7500.5	754.8	1042.2	470.94	2.41E-07	0.042907	0.000029374
560	101330	0.62995	1.5874	404780	565620	7502.3	755.02	1042.4	471.34	2.37E-07	0.042966	0.000029411
561	101330	0.62883	1.5903	405530	566670	7504.2	755.24	1042.7	471.74	2.33E-07	0.043025	0.000029447
562	101330	0.62771	1.5931	406290	567710	7506.1	755.46	1042.9	472.14	2.30E-07	0.043084	0.000029484
563	101330	0.62659	1.5959	407040	568750	7507.9	755.69	1043.1	472.54	2.26E-07	0.043143	0.000029521
564	101330	0.62548	1.5988	407800	569800	7509.8	755.91	1043.3	472.94	2.23E-07	0.043202	0.000029557
565	101330	0.62437	1.6016	408560	570840	7511.6	756.13	1043.5	473.34	2.19E-07	0.043261	0.000029593
566	101330	0.62327	1.6044	409310	571880	7513.5	756.35	1043.8	473.74	2.16E-07	0.04332	0.00002963
567	101330	0.62217	1.6073	410070	572930	7515.3	756.57	1044	474.14	2.12E-07	0.043378	0.000029666
568	101330	0.62108	1.6101	410830	573970	7517.1	756.79	1044.2	474.54	2.09E-07	0.043437	0.000029703
569	101330	0.61998	1.6129	411580	575010	7519	757.02	1044.4	474.94	2.05E-07	0.043496	0.000029739
570	101330	0.6189	1.6158	412340	576060	7520.8	757.24	1044.7	475.34	2.02E-07	0.043555	0.000029775
571	101330	0.61781	1.6186	413100	577100	7522.6	757.46	1044.9	475.73	1.98E-07	0.043614	0.000029811
572	101330	0.61673	1.6214	413860	578150	7524.5	757.69	1045.1	476.13	1.95E-07	0.043672	0.000029848
573	101330	0.61566	1.6243	414610	579190	7526.3	757.91	1045.3	476.53	1.92E-07	0.043731	0.000029884
574	101330	0.61458	1.6271	415370	580240	7528.1	758.14	1045.5	476.92	1.88E-07	0.043789	0.00002992
575	101330	0.61351	1.63	416130	581290	7529.9	758.36	1045.8	477.32	1.85E-07	0.043848	0.000029956
576	101330	0.61245	1.6328	416890	582330	7531.8	758.59	1046	477.71	1.81E-07	0.043907	0.000029992
577	101330	0.61139	1.6356	417650	583380	7533.6	758.81	1046.2	478.11	1.78E-07	0.043965	0.000030028
578	101330	0.61033	1.6385	418410	584420	7535.4	759.04	1046.4	478.5	1.75E-07	0.044023	0.000030065
579	101330	0.60928	1.6413	419170	585470	7537.2	759.26	1046.7	478.9	1.71E-07	0.044082	0.000030101
580	101330	0.60822	1.6441	419930	586520	7539	759.49	1046.9	479.29	1.68E-07	0.04414	0.000030137
581	101330	0.60718	1.647	420690	587560	7540.8	759.72	1047.1	479.68	1.65E-07	0.044199	0.000030173
582	101330	0.60613	1.6498	421450	588610	7542.6	759.94	1047.3	480.08	1.62E-07	0.044257	0.000030209
583	101330	0.60509	1.6526	422210	589660	7544.4	760.17	1047.6	480.47	1.58E-07	0.044315	0.000030244
584	101330	0.60406	1.6555	422970	590710	7546.2	760.4	1047.8	480.86	1.55E-07	0.044374	0.00003028
585	101330	0.60303	1.6583	423730	591750	7548	760.63	1048	481.25	1.52E-07	0.044432	0.000030316
586	101330	0.602	1.6611	424490	592800	7549.8	760.85	1048.2	481.64	1.49E-07	0.04449	0.000030352
587	101330	0.60097	1.664	425250	593850	7551.6	761.08	1048.5	482.03	1.45E-07	0.044548	0.000030388
588	101330	0.59995	1.6668	426010	594900	7553.4	761.31	1048.7	482.43	1.42E-07	0.044606	0.000030424
589	101330	0.59893	1.6696	426770	595950	7555.1	761.54	1048.9	482.82	1.39E-07	0.044664	0.000030459
590	101330	0.59791	1.6725	427530	597000	7556.9	761.77	1049.2	483.2	1.36E-07	0.044722	0.000030495
591	101330	0.5969	1.6753	428300	598050	7558.7	762	1049.4	483.59	1.33E-07	0.04478	0.000030531
592	101330	0.59589	1.6781	429060	599100	7560.5	762.23	1049.6	483.98	1.30E-07	0.044838	0.000030567
593	101330	0.59489	1.681	429820	600150	7562.2	762.46	1049.8	484.37	1.26E-07	0.044896	0.000030602
594	101330	0.59389	1.6838	430580	601200	7564	762.69	1050.1	484.76	1.23E-07	0.044954	0.000030638
595	101330	0.59289	1.6867	431350	602250	7565.8	762.92	1050.3	485.15	1.20E-07	0.045012	0.000030673
596	101330	0.5919	1.6895	432110	603300	7567.5	763.15	1050.5	485.53	1.17E-07	0.04507	0.000030709
597	101330	0.5909	1.6923	432870	604350	7569.3	763.38	1050.8	485.92	1.14E-07	0.045128	0.000030744
598	101330	0.58992	1.6952	433640	605400	7571.1	763.61	1051	486.31	1.11E-07	0.045186	0.00003078
599	101330	0.58893	1.698	434400	606450	7572.8	763.84	1051.2	486.69	1.08E-07	0.045243	0.000030815
600	101330	0.58795	1.7008	435160	607500	7574.6	764.07	1051.4	487.08	0.000000105	0.045301	0.000030851
